  
       XFOIL         Version 6.99
  
 Calculated polar for: NASA/LANGLEY LS(1)-0413 (GA(W)-2) AIRFOIL       
  
 1 1 Reynolds number fixed          Mach number fixed         
  
 xtrf =   1.000 (top)        1.000 (bottom)  
 Mach =   0.000     Re =     0.400 e 6     Ncrit =   9.000
  
   alpha    CL        CD       CDp       CM     Top_Xtr  Bot_Xtr
  ------ -------- --------- --------- -------- -------- --------
   0.000   0.4994   0.00957   0.00478  -0.1121   0.8211   0.7537
   0.500   0.5568   0.00953   0.00469  -0.1120   0.8047   0.7633
   1.000   0.6120   0.00943   0.00458  -0.1113   0.7843   0.7698
   1.500   0.6704   0.00939   0.00450  -0.1117   0.7659   0.7761
   2.000   0.7272   0.00936   0.00447  -0.1117   0.7456   0.7814
   2.500   0.7830   0.00937   0.00450  -0.1115   0.7169   0.7868
   3.000   0.8387   0.00949   0.00452  -0.1113   0.6709   0.7936
   3.500   0.8852   0.01006   0.00467  -0.1092   0.5593   0.7988
   4.000   0.9191   0.01189   0.00554  -0.1056   0.3735   0.8056
   4.500   0.9591   0.01340   0.00641  -0.1033   0.2504   0.8121
   5.000   1.0012   0.01458   0.00722  -0.1013   0.1791   0.8187
   5.500   1.0469   0.01559   0.00805  -0.0999   0.1441   0.8261
   6.000   1.0898   0.01650   0.00891  -0.0978   0.1234   0.8331
   6.500   1.1340   0.01746   0.00984  -0.0962   0.1092   0.8417
   7.000   1.1746   0.01839   0.01080  -0.0937   0.0984   0.8496
   7.500   1.2165   0.01928   0.01180  -0.0916   0.0901   0.8590
   8.000   1.2498   0.02046   0.01303  -0.0880   0.0824   0.8698
   8.500   1.2841   0.02133   0.01403  -0.0846   0.0760   0.8818
   9.000   1.3147   0.02272   0.01552  -0.0809   0.0700   0.8953
   9.500   1.3480   0.02379   0.01673  -0.0777   0.0646   0.9119
  10.000   1.3717   0.02540   0.01850  -0.0732   0.0599   0.9384
  10.500   1.4015   0.02670   0.01995  -0.0701   0.0555   1.0000
  11.000   1.4293   0.02909   0.02238  -0.0676   0.0512   1.0000
  11.500   1.4609   0.03096   0.02442  -0.0655   0.0476   1.0000
  12.000   1.4830   0.03362   0.02712  -0.0627   0.0445   1.0000
  12.500   1.5041   0.03648   0.03019  -0.0598   0.0422   1.0000
  13.000   1.5241   0.03936   0.03327  -0.0571   0.0401   1.0000
  13.500   1.5398   0.04262   0.03666  -0.0545   0.0383   1.0000
  14.000   1.5471   0.04704   0.04121  -0.0515   0.0365   1.0000
  14.500   1.5564   0.05106   0.04555  -0.0494   0.0353   1.0000
  15.000   1.5613   0.05576   0.05050  -0.0476   0.0339   1.0000
  15.500   1.5640   0.06090   0.05583  -0.0466   0.0327   1.0000
  16.000   1.5627   0.06684   0.06192  -0.0461   0.0316   1.0000
  16.500   1.5491   0.07468   0.07000  -0.0459   0.0306   1.0000
  17.000   1.5362   0.08328   0.07898  -0.0479   0.0300   1.0000
  17.500   1.5178   0.09337   0.08942  -0.0513   0.0293   1.0000
  18.000   1.4943   0.10505   0.10143  -0.0565   0.0287   1.0000
  18.500   1.4663   0.11833   0.11504  -0.0635   0.0281   1.0000
  19.000   1.4312   0.13380   0.13085  -0.0728   0.0278   1.0000
  19.500   1.3589   0.15953   0.15709  -0.0905   0.0279   1.0000
